Laguna Aculeo, Chile Austral Summer Temperature Reconstruction
-----------------------------------------------------------------------
               World Data Center for Paleoclimatology, Boulder
                                  and
                     NOAA Paleoclimatology Program
-----------------------------------------------------------------------
NOTE: PLEASE CITE ORIGINAL REFERENCE WHEN USING THIS DATA!!!!!


NAME OF DATA SET: 
Laguna Aculeo, Chile Austral Summer Temperature Reconstruction

LAST UPDATE: 8/2009 (Original receipt by WDC Paleo) 
CONTRIBUTOR: L. von Gunten, M. Grosjean, B. Rein, R. Urrutia, 
and P. Appleby
IGBP PAGES/WDCA CONTRIBUTION SERIES NUMBER: 2009-088 


WDC PALEO CONTRIBUTION SERIES CITATION: 
von Gunten, L., et al. 2009.  
Laguna Aculeo, Chile Austral Summer Temperature Reconstruction. 
IGBP PAGES/World Data Center for Paleoclimatology 
Data Contribution Series # 2009-088. 
NOAA/NCDC Paleoclimatology Program, Boulder CO, USA.


ORIGINAL REFERENCE: 
von Gunten, L., M. Grosjean, B. Rein, R. Urrutia, and P. Appleby. 2009.
A quantitative high-resolution summer temperature reconstruction based on 
sedimentary pigments from Laguna Aculeo, central Chile, back to AD 850.
The Holocene, Vol. 19, Number 6, pp. 873-881.  
DOI: 10.1177/0959683609336573

ABSTRACT: 
We present a pigment-based quantitative high-resolution (five years) 
austral summer DJF (December to February) temperature reconstruction 
for Central Chile back to AD 850. We used non-destructive in situ 
multichannel reflection spectrometry data from a short sediment core 
of Laguna Aculeo (33°50'S/70°54'W, 355 m a.s.l., central Chile). 
Calibration-in-time (period AD 1901–2000, cross-validated with split 
periods) revealed robust correlations between local DJF temperatures 
and total sedimentary chlorin (relative absorption band depth (RABD) 
centred in 660-670 nm RABD660;670: r=0.79, P<0.01; five-years 
triangular filtered) and the degree of pigment diagenesis (R660nm/670 
nm: r=0.82, P<0.01; five-years triangular filter). Root Mean Squared
Error values are small (between 0.24 and 0.34°C) suggesting that most 
of the reconstructed decadal-scale climate variability is significant. 
Our data provide quantitative evidence for the presence of a Medieval 
Climate Anomaly (in this case, warm summers between AD 1150 and 1350; 
DT = +0.27 to +0.37°C with respect to (wrt) twentieth century) and a 
very cool period synchronous to the 'Little Ice Age' starting with a 
sharp drop between AD 1350 and AD 1400 (-0.3°C/10 yr, decadal trend) 
followed by constantly cool (DT = -0.70 to -0.90°C wrt twentieth 
century) summers until AD 1750. The structure of variability is 
consistent in great detail with annually resolved tree-ring based 
warm-season temperature and river discharge reconstructions from 
northern Patagonia (42°S) for the past 400 years, with qualitative 
climate reconstructions from Andean glacier fluctuations,
and with hydrological changes in Patagonian lake sediment records.



GEOGRAPHIC REGION: South America, central Chile
PERIOD OF RECORD: 856 - 1997 AD
FUNDING SOURCE: Swiss National Science Foundation (NF-200021-107598) 



DESCRIPTION:
Austral summer DJF (December to February) temperature reconstruction 
for central Chile based on sediment pigment from Laguna Aculeo. 

Laguna Aculeo, central Chile: 33°50'S, 70°54'W, 355 m a.s.l., 7m depth. 



DATA:  
Austral summer (DJF) Temperature Reconstructions 

Column 1: Year AD  
Column 2: Austral summer (DJF) Temperature Reconstruction, Linear regression, 3-year filter, °C  
Column 3: Austral summer (DJF) Temperature Reconstruction, Linear regression, 5-year filter, °C 
Column 4: Austral summer (DJF) Temperature Reconstruction, Scaling, 3-year filter, °C 
Column 5: Austral summer (DJF) Temperature Reconstruction, Scaling, 5-year filter, °C 

Notes: F3: 3-year triangular filter, F5: 5-year triangular filter, 
calibration 1901-1996 AD, °C

           Linear regression          Scaling
Year          F3         F5         F3         F5
856       19.166                19.239
857        19.14     19.137     19.205     19.178
858       19.094      19.09     19.146     19.122
859       19.028     19.028     19.059     19.048
860       18.954     18.956     18.964     18.962
861       18.881     18.881     18.867     18.873
862       18.806     18.802      18.77     18.778
863       18.723     18.709     18.662     18.668
864       18.611     18.593     18.516      18.53
865       18.465     18.459     18.325     18.371
866       18.322     18.339     18.139     18.227
867       18.242     18.261     18.034     18.135
868       18.237     18.242     18.028     18.111
869       18.268     18.267     18.068     18.142
870       18.322     18.325     18.139      18.21
871       18.407     18.403      18.25     18.303
872       18.501     18.487     18.372     18.404
873       18.577     18.562     18.471     18.493
874       18.628      18.62     18.538     18.562
875       18.671      18.67     18.593     18.621
876       18.718     18.718     18.655     18.679
877       18.772     18.774     18.726     18.745
878       18.833     18.844     18.806     18.829
879       18.921     18.938     18.919      18.94
880       19.047     19.056     19.084     19.081
881       19.184     19.166     19.263     19.212
882       19.264     19.236     19.368     19.295
883       19.254     19.243     19.354     19.303
884       19.202     19.212     19.286     19.267
885       19.157     19.168     19.228     19.215
886       19.125     19.133     19.187     19.173
887       19.099     19.103     19.152     19.137
888        19.07     19.073     19.115     19.101
889       19.036     19.039      19.07     19.061
890           19     19.013     19.023      19.03
891       18.986     19.006     19.005     19.021
892       19.015     19.028     19.043     19.048
893       19.065     19.058     19.108     19.083
894        19.09     19.074      19.14     19.102
895       19.062     19.054     19.103     19.078
896       19.007     19.016     19.032     19.033
897       18.965     18.978     18.977     18.988
898        18.95     18.959     18.958     18.965
899        18.95     18.957     18.958     18.963
900       18.961     18.971     18.972      18.98
901       18.991     18.999     19.011     19.013
902       19.033     19.038     19.066     19.059
903       19.077     19.082     19.124     19.113
904       19.123     19.129     19.183     19.168
905        19.17     19.172     19.244     19.219
906       19.207     19.206     19.293      19.26
907       19.225     19.226     19.316     19.284
908       19.229     19.234     19.321     19.293
909       19.228     19.232      19.32      19.29
910       19.219     19.224     19.308     19.281
911       19.205     19.206      19.29      19.26
912       19.179     19.175     19.256     19.222
913       19.127     19.124     19.188     19.162
914       19.055     19.065     19.095     19.092
915       18.996     19.016     19.018     19.034
916       18.979     18.995     18.996     19.009
917       18.994     19.001     19.015     19.015
918       19.018     19.022     19.046     19.041
919       19.044     19.049     19.081     19.073
920       19.073     19.078     19.119     19.107
921       19.103     19.107     19.157     19.142
922       19.131     19.136     19.194     19.176
923       19.158     19.167      19.23     19.213
924       19.191     19.203     19.272     19.256
925       19.237      19.25     19.332     19.312
926       19.296     19.307      19.41      19.38
927        19.36      19.37     19.492     19.454
928       19.423     19.434     19.575     19.531
929       19.487     19.491     19.658     19.599
930       19.533     19.524     19.718     19.638
931       19.526     19.516     19.709     19.629
932       19.464     19.469     19.628     19.573
933       19.388     19.405      19.53     19.497
934       19.329     19.345     19.452     19.426
935       19.287     19.301     19.397     19.373
936       19.258     19.275     19.359     19.342
937       19.251      19.27     19.351     19.335
938       19.271      19.28     19.376     19.348
939       19.293     19.291     19.406     19.361
940        19.29     19.286     19.401     19.355
941       19.256      19.26     19.357     19.324
942       19.214     19.228     19.302     19.286
943       19.188     19.204     19.269     19.257
944       19.185     19.194     19.264     19.246
945       19.188     19.191     19.268     19.242
946       19.183     19.185     19.262     19.235
947       19.168     19.171     19.242     19.218
948       19.146      19.15     19.214     19.193
949        19.12     19.123      19.18      19.16
950       19.087      19.09     19.136     19.122
951       19.051     19.057      19.09     19.082
952        19.02     19.026     19.049     19.045
953       18.995         19     19.017     19.014
954       18.974     18.979     18.989     18.989
955       18.958     18.964     18.969     18.972
956       18.951     18.954     18.959      18.96
957       18.946     18.939     18.953     18.942
958       18.921     18.909      18.92     18.906
959       18.862     18.856     18.843     18.843
960       18.788     18.797     18.746     18.773
961       18.737     18.751     18.679     18.718
962       18.726     18.732     18.665     18.695
963       18.733      18.71     18.675     18.669
964       18.694     18.656     18.624     18.605
965       18.566     18.541     18.457     18.468
966       18.394     18.409     18.233     18.311
967       18.274     18.305     18.076     18.186
968       18.257      18.27     18.054     18.146
969       18.294     18.291     18.102      18.17
970       18.346     18.348      18.17     18.238
971       18.427     18.427     18.276     18.332
972       18.525     18.505     18.403     18.425
973       18.592     18.562     18.491     18.493
974       18.596     18.575     18.496     18.508
975       18.562     18.561     18.452     18.491
976       18.537     18.541     18.419     18.468
977       18.537     18.538     18.419     18.465
978       18.553     18.543     18.441     18.471
979       18.559     18.543     18.448      18.47
980       18.537     18.524      18.42     18.447
981       18.498     18.498     18.368     18.417
982       18.473     18.482     18.336     18.398
983       18.488     18.493     18.355     18.411
984       18.531     18.523     18.411     18.447
985        18.57     18.556     18.461     18.486
986       18.587     18.576     18.485     18.509
987        18.59     18.583     18.488     18.518
988       18.589     18.585     18.487      18.52
989       18.589     18.585     18.488      18.52
990       18.591     18.588     18.489     18.523
991       18.596     18.595     18.495     18.532
992       18.609     18.608     18.513     18.548
993        18.63     18.623     18.541     18.566
994       18.644     18.631     18.559     18.575
995       18.635     18.623     18.547     18.566
996       18.607     18.605      18.51     18.544
997       18.583      18.59     18.479     18.526
998       18.588     18.595     18.486     18.532
999        18.62     18.617     18.527     18.558
1000      18.653     18.643     18.571     18.589
1001      18.671     18.661     18.593     18.611
1002      18.672     18.665     18.596     18.616
1003      18.665     18.657     18.586     18.606
1004      18.646     18.637     18.561     18.582
1005      18.614     18.611      18.52     18.551
1006      18.585     18.589     18.481     18.525
1007      18.577     18.581     18.471     18.515
1008      18.591     18.589      18.49     18.525
1009      18.612     18.604     18.516     18.543
1010      18.625     18.617     18.533     18.558
1011      18.629     18.623     18.539     18.565
1012      18.628     18.621     18.538     18.563
1013      18.619     18.611     18.526     18.551
1014      18.601     18.594     18.502     18.531
1015      18.578     18.574     18.473     18.507
1016      18.558     18.553     18.446     18.482
1017      18.539     18.532     18.421     18.457
1018      18.517     18.504     18.393     18.424
1019      18.479     18.463     18.343     18.375
1020      18.418     18.411     18.264     18.312
1021      18.358     18.372     18.186     18.267
1022      18.353     18.375     18.179      18.27
1023      18.424     18.428     18.272     18.333
1024      18.521     18.492     18.398     18.409
1025      18.565     18.528     18.455     18.452
1026       18.53     18.509      18.41      18.43
1027      18.462     18.464     18.322     18.376
1028      18.415      18.42      18.26     18.324
1029        18.4     18.399     18.241     18.298
1030        18.4     18.392     18.241      18.29
1031        18.4     18.392     18.241      18.29
1032        18.4     18.393     18.241     18.291
1033      18.402     18.404     18.243     18.305
1034      18.428     18.437     18.276     18.344
1035      18.497       18.5     18.367     18.419
1036      18.587     18.572     18.484     18.505
1037      18.655     18.635     18.573      18.58
1038      18.682      18.67     18.609     18.622
1039       18.69     18.688     18.618     18.643
1040        18.7       18.7     18.632     18.657
1041      18.717     18.716     18.653     18.676
1042      18.737     18.733     18.679     18.696
1043      18.752     18.747     18.699     18.713
1044      18.758     18.755     18.708     18.722
1045       18.76     18.759      18.71     18.728
1046      18.763     18.764     18.714     18.734
1047      18.773     18.773     18.726     18.744
1048      18.785     18.782     18.743     18.755
1049      18.793     18.787     18.752     18.761
1050      18.789     18.785     18.748     18.758
1051      18.778     18.784     18.734     18.757
1052      18.783     18.795     18.739     18.771
1053      18.821     18.831      18.79     18.813
1054      18.883      18.88      18.87     18.871
1055      18.935     18.925     18.938     18.925
1056      18.958     18.952     18.969     18.957
1057      18.962     18.963     18.973     18.971
1058      18.963     18.968     18.975     18.976
1059      18.971     18.975     18.985     18.984
1060      18.982     18.984         19     18.996
1061      18.993     18.994     19.013     19.007
1062      18.999         19     19.021     19.014
1063      19.001     19.001     19.024     19.016
1064      18.997     18.994     19.019     19.007
1065      18.978     18.975     18.994     18.984
1066      18.946     18.952     18.952     18.957
1067      18.924      18.94     18.923     18.942
1068      18.937     18.952     18.941     18.957
1069      18.981     18.987     18.998     18.998
1070      19.032     19.033     19.064     19.054
1071      19.078      19.08     19.124      19.11
1072      19.119     19.122     19.178     19.159
1073      19.155     19.157     19.225     19.201
1074      19.181     19.184     19.259     19.233
1075      19.198     19.205     19.281     19.259
1076      19.216      19.23     19.305     19.289
1077      19.252     19.267     19.352     19.332
1078      19.306     19.313     19.422     19.387
1079      19.355      19.35     19.487     19.431
1080      19.369     19.363     19.505     19.447
1081      19.344     19.347     19.471     19.427
1082      19.303     19.312     19.419     19.385
1083      19.262      19.27     19.365     19.335
1084       19.22     19.225      19.31     19.282
1085      19.173     19.171     19.248     19.217
1086      19.106     19.101     19.161     19.134
1087      19.014     19.014     19.042     19.031
1088      18.916     18.923     18.913     18.922
1089       18.83     18.837     18.801      18.82
1090      18.761     18.762     18.711     18.731
1091      18.697     18.691     18.628     18.646
1092      18.625     18.616     18.534     18.558
1093      18.542     18.538     18.425     18.465
1094      18.463     18.485     18.323     18.401
1095      18.452     18.486     18.308     18.402
1096      18.542     18.554     18.426     18.484
1097      18.672     18.648     18.595     18.595
1098      18.755     18.723     18.703     18.685
1099      18.763     18.746     18.714     18.712
1100      18.737     18.738      18.68     18.702
1101      18.718     18.719     18.655      18.68
1102      18.708     18.707     18.642     18.666
1103      18.702     18.693     18.634     18.648
1104      18.681     18.667     18.607     18.618
1105      18.633     18.623     18.545     18.566
1106      18.572     18.584     18.464     18.519
1107      18.548     18.572     18.433     18.504
1108      18.598      18.61     18.498      18.55
1109      18.685     18.661     18.612     18.611
1110      18.726     18.686     18.666     18.641
1111      18.672     18.646     18.595     18.593
1112      18.567     18.566     18.458     18.497
1113       18.47     18.472     18.332     18.386
1114      18.396     18.393     18.235     18.292
1115      18.334     18.347     18.155     18.236
1116      18.321     18.352     18.138     18.243
1117       18.41      18.43     18.254     18.335
1118      18.562      18.54     18.452     18.467
1119      18.677     18.632     18.601     18.576
1120      18.688     18.656     18.616     18.604
1121      18.631     18.623     18.542     18.566
1122      18.566     18.563     18.457     18.494
1123      18.505     18.501     18.378      18.42
1124      18.449     18.445     18.304     18.354
1125        18.4     18.399     18.241     18.299
1126       18.37     18.367     18.201     18.261
1127      18.353     18.339      18.18     18.228
1128      18.326     18.302     18.144     18.183
1129      18.264     18.241     18.063     18.111
1130      18.173     18.164     17.945     18.019
1131       18.09     18.092     17.836     17.933
1132      18.046     18.046     17.779     17.878
1133      18.037     18.027     17.767     17.855
1134      18.038     18.024     17.769     17.853
1135      18.043     18.029     17.775     17.858
1136      18.051     18.032     17.785     17.862
1137      18.051     18.025     17.785     17.854
1138      18.025     17.999     17.751     17.822
1139      17.974     17.961     17.684     17.777
1140      17.929     17.934     17.627     17.745
1141      17.937     17.943     17.637     17.756
1142      18.001     17.999     17.719     17.822
1143      18.096     18.099     17.844     17.942
1144      18.233     18.242     18.023     18.112
1145       18.42     18.419     18.266     18.322
1146      18.621     18.612     18.529     18.552
1147       18.81     18.803     18.775      18.78
1148      18.983      18.97         19     18.979
1149      19.122     19.074     19.182     19.102
1150      19.136     19.074       19.2     19.102
1151      18.983     18.962     19.001      18.97
1152      18.778      18.82     18.734       18.8
1153      18.673     18.728     18.596      18.69
1154      18.711     18.736     18.646       18.7
1155      18.811     18.806     18.776     18.784
1156      18.902     18.898     18.895     18.892
1157      18.979     18.979     18.996     18.989
1158      19.051     19.054     19.089     19.079
1159      19.121     19.126     19.181     19.164
1160       19.19     19.195      19.27     19.247
1161      19.256     19.249     19.357     19.311
1162      19.289     19.273       19.4     19.339
1163       19.26     19.255     19.363     19.318
1164      19.202     19.212     19.286     19.267
1165      19.151     19.164      19.22     19.209
1166      19.118     19.127     19.177     19.165
1167      19.093     19.107     19.144     19.142
1168      19.089     19.111     19.139     19.146
1169      19.128     19.144      19.19     19.186
1170      19.191     19.189     19.272      19.24
1171      19.236     19.227     19.331     19.285
1172       19.24     19.237     19.336     19.296
1173       19.22     19.227     19.309     19.285
1174        19.2     19.211     19.284     19.266
1175      19.191       19.2     19.272     19.253
1176      19.187     19.198     19.267      19.25
1177      19.193     19.207     19.274      19.26
1178      19.216     19.228     19.304     19.286
1179      19.251     19.255     19.351     19.318
1180      19.279     19.276     19.387     19.343
1181      19.279     19.279     19.387     19.346
1182      19.259     19.267      19.36     19.332
1183      19.239     19.253     19.335     19.316
1184      19.235     19.248      19.33      19.31
1185      19.245     19.251     19.342     19.314
1186      19.252     19.253     19.352     19.315
1187      19.242     19.242     19.338     19.303
1188      19.214     19.222     19.302     19.279
1189      19.189     19.206     19.269      19.26
1190      19.189     19.206      19.27      19.26
1191      19.215     19.224     19.304     19.281
1192      19.246     19.246     19.343     19.308
1193       19.26      19.26     19.362     19.324
1194      19.256     19.261     19.357     19.325
1195      19.246     19.255     19.343     19.317
1196      19.238     19.247     19.334     19.309
1197      19.235     19.242     19.329     19.302
1198       19.23     19.233     19.323     19.292
1199      19.214     19.215     19.303      19.27
1200      19.183     19.186     19.261     19.236
1201      19.145     19.152     19.212     19.195
1202      19.109     19.116     19.165     19.152
1203      19.077     19.083     19.124     19.114
1204      19.049     19.061     19.087     19.087
1205      19.039     19.055     19.074      19.08
1206      19.061     19.071     19.102     19.099
1207      19.097     19.099     19.149     19.132
1208      19.127     19.127     19.188     19.166
1209      19.145     19.148     19.212     19.191
1210      19.157     19.162     19.228     19.208
1211      19.168     19.173     19.242      19.22
1212      19.174      19.18     19.251     19.228
1213      19.179     19.187     19.256     19.237
1214      19.187     19.196     19.266     19.248
1215      19.202      19.21     19.286     19.265
1216      19.221     19.229     19.312     19.288
1217      19.243     19.252      19.34     19.315
1218      19.269     19.278     19.374     19.346
1219      19.297     19.301     19.411     19.373
1220      19.315     19.312     19.433     19.386
1221      19.304     19.304      19.42     19.377
1222      19.273     19.277     19.379     19.344
1223      19.232     19.235     19.326     19.294
1224       19.18     19.182     19.258     19.231
1225      19.117      19.12     19.176     19.158
1226       19.05     19.053     19.089     19.077
1227       18.98     18.981     18.997     18.992
1228      18.906     18.917       18.9     18.916
1229      18.854     18.886     18.833     18.879
1230      18.878     18.912     18.864      18.91
1231      18.983      18.99         19     19.003
1232      19.098     19.073     19.151     19.102
1233      19.144     19.115      19.21     19.152
1234      19.106     19.103     19.162     19.137
1235      19.051     19.086      19.09     19.117
1236      19.068     19.113     19.112     19.149
1237      19.184     19.206     19.263     19.259
1238      19.333     19.316     19.457      19.39
1239      19.421     19.394     19.572     19.483
1240      19.414     19.406     19.563     19.498
1241      19.365     19.382     19.499     19.469
1242      19.332     19.352     19.456     19.433
1243      19.325      19.34     19.447     19.419
1244      19.332     19.338     19.455     19.416
1245      19.331     19.334     19.455     19.413
1246      19.316     19.321     19.435     19.397
1247      19.293     19.298     19.405     19.369
1248      19.262     19.264     19.365     19.328
1249      19.215     19.218     19.303     19.273
1250      19.157     19.175     19.228     19.222
1251      19.125     19.154     19.186     19.198
1252      19.152     19.175     19.221     19.223
1253       19.22     19.223      19.31      19.28
1254      19.279     19.271     19.387     19.337
1255      19.299     19.294     19.412     19.364
1256      19.286     19.292     19.396     19.362
1257      19.268      19.28     19.373     19.347
1258      19.259      19.27      19.36     19.336
1259      19.257     19.267     19.358     19.332
1260      19.259     19.269     19.361     19.335
1261      19.267     19.277     19.371     19.344
1262       19.28     19.289     19.388     19.358
1263      19.295     19.302     19.407     19.374
1264      19.307     19.315     19.424     19.389
1265      19.317     19.324     19.437       19.4
1266      19.322     19.322     19.443     19.398
1267      19.307     19.304     19.423     19.376
1268      19.263     19.266     19.366     19.331
1269      19.209     19.225     19.295     19.283
1270      19.177     19.198     19.254      19.25
1271      19.182     19.196      19.26     19.248
1272      19.203     19.203     19.288     19.257
1273       19.21     19.205     19.297     19.259
1274      19.187     19.186     19.266     19.236
1275      19.148     19.163     19.216     19.208
1276      19.129     19.151     19.192     19.194
1277      19.151     19.168      19.22     19.214
1278      19.197       19.2      19.28     19.253
1279      19.235     19.233     19.329     19.292
1280      19.251     19.252      19.35     19.314
1281      19.251     19.257     19.351      19.32
1282      19.247     19.252     19.345     19.314
1283      19.235     19.241      19.33     19.301
1284      19.219     19.222     19.308     19.278
1285      19.192      19.19     19.274      19.24
1286      19.143      19.14      19.21     19.181
1287      19.073     19.082     19.118     19.112
1288      19.013     19.041      19.04     19.063
1289      19.013     19.042      19.04     19.065
1290      19.076     19.087     19.122     19.118
1291      19.153     19.144     19.223     19.186
1292      19.196     19.185     19.279     19.234
1293      19.194     19.194     19.277     19.245
1294      19.176     19.185     19.253     19.235
1295      19.165     19.175     19.238     19.222
1296      19.163     19.171     19.236     19.219
1297      19.167     19.174      19.24     19.221
1298      19.173     19.181     19.248     19.229
1299      19.183      19.19     19.262     19.241
1300      19.195     19.202     19.278     19.255
1301      19.208     19.215     19.295     19.271
1302      19.222     19.229     19.312     19.287
1303      19.236     19.243      19.33     19.303
1304      19.248     19.255     19.347     19.318
1305      19.258     19.265     19.359      19.33
1306      19.266     19.275      19.37     19.342
1307      19.276     19.287     19.383     19.356
1308      19.293     19.304     19.406     19.377
1309      19.316     19.321     19.435     19.397
1310      19.331     19.331     19.454     19.408
1311      19.323     19.323     19.444       19.4
1312      19.295     19.305     19.407     19.378
1313       19.27     19.291     19.376     19.361
1314      19.276     19.297     19.383     19.368
1315      19.311     19.324     19.429       19.4
1316      19.355      19.36     19.486     19.443
1317      19.387     19.392     19.528     19.482
1318      19.407     19.415     19.554     19.508
1319       19.42     19.426     19.571     19.522
1320      19.421     19.426     19.573     19.521
1321      19.407     19.414     19.554     19.507
1322      19.385     19.392     19.525     19.481
1323      19.355      19.36     19.486     19.443
1324      19.313      19.32     19.432     19.395
1325      19.266     19.285      19.37     19.354
1326      19.243      19.27      19.34     19.335
1327      19.268     19.288     19.373     19.357
1328      19.319     19.326     19.439     19.402
1329      19.365     19.371     19.499     19.456
1330      19.402      19.41     19.547     19.503
1331      19.434     19.444     19.589     19.543
1332      19.463     19.473     19.627     19.577
1333      19.487     19.498     19.659     19.607
1334      19.508     19.525     19.686      19.64
1335      19.539     19.562     19.726     19.684
1336      19.594     19.618     19.798      19.75
1337      19.671     19.684     19.898     19.829
1338      19.742     19.745     19.991     19.902
1339       19.78     19.785     20.041     19.949
1340      19.787     19.798      20.05     19.965
1341      19.779      19.79     20.039     19.955
1342      19.754     19.764     20.007     19.924
1343       19.71     19.718     19.949     19.869
1344      19.646     19.636     19.866     19.772
1345      19.524     19.506     19.706     19.617
1346      19.326     19.323     19.448     19.399
1347      19.101     19.124     19.155     19.162
1348      18.917     18.943     18.915     18.947
1349      18.794     18.808     18.754     18.785
1350      18.703     18.737     18.636     18.701
1351      18.694      18.75     18.624     18.717
1352      18.832     18.864     18.804     18.853
1353      19.042     19.025     19.078     19.044
1354      19.205     19.173      19.29      19.22
1355       19.27     19.255     19.375     19.318
1356      19.283     19.281     19.392     19.348
1357      19.272     19.262     19.378     19.327
1358      19.217     19.212     19.306     19.267
1359      19.134     19.143     19.197     19.184
1360      19.058     19.074     19.099     19.103
1361      19.012     19.024     19.038     19.043
1362      18.987     18.992     19.006     19.005
1363      18.968     18.972     18.981     18.981
1364      18.953     18.957     18.962     18.963
1365      18.942     18.945     18.948     18.949
1366      18.933     18.936     18.936     18.938
1367      18.927      18.93     18.928     18.931
1368      18.924     18.925     18.924     18.925
1369      18.919     18.916     18.917     18.915
1370      18.904     18.901     18.898     18.896
1371      18.879     18.878     18.865     18.869
1372       18.85     18.851     18.827     18.837
1373      18.823     18.824     18.793     18.805
1374        18.8     18.798     18.762     18.774
1375      18.774      18.76     18.728     18.729
1376      18.719     18.699     18.656     18.656
1377      18.621     18.609     18.529     18.549
1378      18.506     18.505     18.379     18.425
1379      18.403     18.403     18.244     18.303
1380       18.32     18.315     18.136     18.199
1381      18.248     18.247     18.041     18.117
1382      18.197     18.203     17.976     18.066
1383      18.193     18.191      17.97     18.051
1384      18.211     18.194     17.994     18.055
1385      18.218     18.198     18.004     18.059
1386      18.204     18.186     17.985     18.045
1387      18.177     18.161     17.949     18.016
1388      18.143     18.126     17.906     17.973
1389      18.099     18.082     17.848     17.921
1390      18.048     18.036     17.781     17.866
1391      18.003     17.994     17.722     17.817
1392      17.976     17.965     17.687     17.782
1393      17.961     17.947     17.668      17.76
1394      17.951     17.936     17.655     17.747
1395      17.944     17.928     17.645     17.738
1396      17.939     17.924     17.639     17.733
1397      17.938     17.926     17.638     17.735
1398      17.949     17.937     17.652     17.748
1399      17.971     17.953     17.681     17.768
1400       17.99     17.964     17.705     17.781
1401      17.986      17.96       17.7     17.775
1402      17.958      17.94     17.663     17.752
1403      17.927     17.919     17.623     17.727
1404      17.919     17.913     17.613      17.72
1405       17.94     17.928      17.64     17.738
1406      17.972     17.956     17.682     17.771
1407      18.006     17.991     17.726     17.813
1408      18.042     18.027     17.774     17.856
1409      18.079     18.059     17.821     17.894
1410      18.103     18.082     17.853     17.922
1411      18.111     18.093     17.863     17.935
1412       18.11     18.096     17.862     17.938
1413      18.108     18.094      17.86     17.935
1414      18.104      18.09     17.854      17.93
1415      18.099     18.085     17.847     17.925
1416      18.094     18.081     17.841      17.92
1417      18.091     18.077     17.838     17.916
1418      18.089     18.076     17.835     17.914
1419      18.088     18.075     17.834     17.913
1420      18.089     18.075     17.835     17.913
1421       18.09     18.073     17.836     17.911
1422      18.085     18.065      17.83     17.901
1423      18.066     18.048     17.805     17.881
1424      18.039     18.029      17.77     17.858
1425      18.023     18.019     17.749     17.846
1426      18.035     18.028     17.764     17.857
1427      18.066     18.051     17.805     17.885
1428      18.097     18.079     17.845     17.918
1429      18.118     18.102     17.873     17.945
1430      18.132      18.12     17.891     17.967
1431       18.15     18.141     17.914     17.992
1432      18.178      18.17     17.951     18.026
1433      18.218     18.204     18.002     18.066
1434      18.252     18.233     18.047       18.1
1435      18.266     18.247     18.066     18.118
1436      18.261      18.25     18.059     18.121
1437      18.255     18.251     18.052     18.123
1438      18.266     18.262     18.065     18.136
1439      18.293     18.282     18.101     18.159
1440      18.318     18.296     18.134     18.176
1441      18.313     18.289     18.127     18.168
1442      18.274      18.26     18.076     18.133
1443      18.228     18.225     18.016     18.092
1444      18.202     18.201     17.983     18.063
1445      18.203     18.196     17.983     18.057
1446      18.215     18.206     17.999     18.068
1447      18.233     18.224     18.022      18.09
1448      18.257     18.247     18.054     18.118
1449      18.284     18.272     18.089     18.148
1450      18.309     18.297     18.121     18.178
1451       18.33     18.319     18.149     18.204
1452      18.349     18.337     18.174     18.225
1453      18.363      18.35     18.192      18.24
1454      18.367     18.356     18.197     18.247
1455      18.366     18.356     18.197     18.248
1456      18.363     18.352     18.192     18.243
1457      18.354     18.344     18.181     18.233
1458      18.343     18.332     18.166      18.22
1459      18.329     18.317     18.148     18.201
1460       18.31     18.299     18.123     18.179
1461      18.288     18.281     18.094     18.158
1462      18.273     18.269     18.075     18.144
1463      18.275     18.268     18.077     18.143
1464      18.285     18.277      18.09     18.153
1465      18.301     18.295     18.111     18.174
1466      18.327      18.32     18.145     18.205
1467       18.36     18.348     18.188     18.238
1468      18.387     18.372     18.223     18.266
1469      18.399     18.386     18.238     18.283
1470        18.4     18.388     18.241     18.286
1471      18.394      18.38     18.233     18.276
1472      18.374      18.36     18.206     18.253
1473      18.343     18.335     18.166     18.222
1474      18.315      18.31     18.129     18.193
1475      18.301     18.295     18.111     18.175
1476      18.298     18.291     18.107      18.17
1477      18.302     18.295     18.112     18.175
1478      18.314     18.307     18.128     18.189
1479      18.333     18.319     18.153     18.203
1480      18.342     18.316     18.164       18.2
1481       18.31     18.284     18.123     18.162
1482      18.241     18.228     18.033     18.095
1483      18.168     18.168     17.938     18.024
1484      18.125     18.124     17.882     17.971
1485      18.112     18.104     17.865     17.948
1486      18.113     18.103     17.866     17.946
1487      18.123     18.114     17.879     17.959
1488      18.144     18.131     17.907      17.98
1489      18.166     18.145     17.935     17.997
1490      18.169     18.148     17.939     17.999
1491      18.151     18.133     17.916     17.982
1492      18.122     18.105     17.878     17.949
1493      18.085     18.066     17.829     17.902
1494      18.036     18.021     17.766     17.849
1495      17.988     17.983     17.702     17.804
1496      17.967     17.967     17.675     17.784
1497      17.987     17.979     17.701     17.798
1498      18.025      18.01     17.751     17.835
1499      18.064     18.051     17.803     17.884
1500      18.108     18.094     17.859     17.935
1501      18.151     18.131     17.915      17.98
1502      18.179     18.157     17.953      18.01
1503      18.182     18.164     17.956     18.019
1504      18.173     18.159     17.944     18.012
1505       18.16     18.144     17.927     17.995
1506       18.14     18.126     17.902     17.973
1507      18.117     18.108     17.872     17.952
1508      18.104     18.097     17.854     17.939
1509      18.108     18.099      17.86     17.941
1510      18.123     18.108     17.878     17.952
1511      18.135      18.12     17.895     17.966
1512      18.143     18.129     17.905     17.977
1513      18.148     18.133     17.912     17.983
1514       18.15     18.134     17.914     17.983
1515      18.145     18.129     17.907     17.978
1516      18.135     18.121     17.894     17.968
1517      18.125     18.112     17.881     17.957
1518      18.116     18.103      17.87     17.946
1519      18.108     18.094      17.86     17.935
1520      18.099     18.082     17.847     17.922
1521      18.083     18.067     17.827     17.904
1522      18.064     18.053     17.802     17.887
1523      18.054     18.049     17.789     17.882
1524       18.07     18.064     17.809       17.9
1525      18.106     18.091     17.857     17.932
1526      18.139     18.116       17.9     17.962
1527      18.148     18.126     17.912     17.973
1528      18.135     18.121     17.895     17.967
1529       18.12     18.111     17.875     17.956
1530      18.116     18.107      17.87     17.951
1531      18.124      18.11      17.88     17.955
1532      18.132     18.114     17.891      17.96
1533       18.13     18.112     17.888     17.957
1534      18.117     18.103     17.871     17.947
1535      18.104     18.096     17.855     17.938
1536      18.105     18.097     17.856     17.939
1537      18.121     18.108     17.876     17.952
1538      18.139      18.12     17.899     17.967
1539      18.144     18.125     17.907     17.972
1540      18.135     18.119     17.894     17.966
1541      18.121     18.111     17.876     17.956
1542      18.116     18.107      17.87     17.951
1543      18.122      18.11     17.878     17.955
1544      18.133     18.117     17.892     17.962
1545      18.137      18.12     17.897     17.966
1546      18.132     18.117     17.891     17.963
1547      18.124     18.112      17.88     17.957
1548       18.12     18.109     17.875     17.953
1549      18.122     18.111     17.878     17.955
1550      18.129     18.123     17.887      17.97
1551      18.152     18.151     17.917     18.003
1552      18.204     18.198     17.985      18.06
1553       18.27     18.255     18.071     18.127
1554      18.326     18.309     18.144     18.191
1555      18.363      18.35     18.193     18.241
1556      18.392     18.371      18.23     18.265
1557      18.393     18.362     18.231     18.254
1558      18.337     18.314     18.159     18.198
1559      18.252     18.253     18.047     18.125
1560      18.193     18.206     17.971     18.068
1561      18.196       18.2     17.975     18.062
1562      18.236     18.226     18.026     18.092
1563      18.278     18.266     18.081      18.14
1564      18.317     18.306     18.132     18.188
1565      18.354     18.336      18.18     18.223
1566      18.371     18.344     18.203     18.233
1567      18.342     18.318     18.165     18.202
1568      18.279      18.27     18.083     18.145
1569       18.22     18.219     18.006     18.084
1570      18.186     18.183     17.962     18.041
1571      18.173     18.162     17.944     18.017
1572      18.163      18.15     17.932     18.002
1573      18.152     18.138     17.917     17.988
1574      18.139     18.128       17.9     17.976
1575      18.131     18.123     17.889      17.97
1576      18.136     18.128     17.895     17.976
1577      18.153     18.141     17.919     17.992
1578      18.173     18.157     17.944     18.011
1579      18.184     18.169     17.959     18.024
1580      18.188     18.173     17.963      18.03
1581      18.186     18.171     17.961     18.028
1582      18.179     18.164     17.952     18.019
1583      18.165     18.152     17.934     18.004
1584       18.15     18.139     17.915      17.99
1585       18.14      18.13     17.902     17.978
1586      18.137     18.125     17.898     17.973
1587      18.137     18.124     17.897     17.971
1588      18.136     18.123     17.896      17.97
1589      18.136     18.124     17.896     17.971
1590      18.138     18.134     17.899     17.983
1591      18.162     18.163      17.93     18.018
1592      18.221     18.215     18.006      18.08
1593      18.293     18.272       18.1     18.147
1594      18.341     18.315     18.164     18.199
1595      18.348      18.33     18.173     18.217
1596      18.336     18.325     18.156     18.211
1597       18.32     18.309     18.137     18.191
1598      18.301     18.289     18.111     18.168
1599      18.279     18.266     18.082      18.14
1600      18.252     18.238     18.048     18.107
1601      18.217     18.203     18.002     18.065
1602      18.177     18.168      17.95     18.024
1603      18.145     18.139     17.908     17.989
1604       18.13     18.121     17.888     17.968
1605      18.126     18.113     17.883     17.958
1606      18.123     18.109     17.879     17.953
1607      18.119     18.104     17.873     17.948
1608      18.113       18.1     17.866     17.942
1609      18.108     18.095      17.86     17.937
1610      18.105     18.092     17.856     17.933
1611      18.103      18.09     17.853      17.93
1612      18.102     18.089     17.852     17.929
1613      18.102     18.088     17.852     17.929
1614      18.102     18.089     17.852      17.93
1615      18.104     18.092     17.855     17.933
1616      18.109     18.097     17.861     17.939
1617      18.118     18.104     17.872     17.947
1618      18.125      18.11     17.882     17.954
1619      18.128     18.112     17.885     17.957
1620      18.125     18.112     17.882     17.957
1621      18.123     18.113     17.879     17.958
1622      18.128     18.118     17.885     17.964
1623      18.141     18.131     17.903     17.979
1624      18.161     18.152     17.928     18.005
1625       18.19     18.184     17.967     18.042
1626      18.234     18.223     18.023     18.089
1627      18.278     18.256     18.081     18.129
1628      18.296     18.272     18.105     18.147
1629      18.279     18.261     18.082     18.135
1630      18.246     18.236     18.039     18.104
1631      18.215     18.204     17.999     18.067
1632      18.186     18.175     17.962     18.032
1633       18.16     18.151     17.927     18.004
1634      18.143     18.136     17.905     17.985
1635      18.141     18.131     17.902     17.979
1636      18.146     18.132     17.909     17.981
1637       18.15     18.135     17.914     17.985
1638       18.15     18.136     17.914     17.986
1639      18.148     18.138     17.912     17.988
1640      18.154     18.146     17.919     17.998
1641      18.173     18.164     17.944     18.019
1642        18.2     18.186      17.98     18.045
1643      18.223     18.208      18.01     18.071
1644      18.237     18.223     18.028     18.089
1645      18.245     18.236     18.038     18.105
1646      18.258     18.253     18.056     18.125
1647      18.286     18.279     18.091     18.156
1648      18.322      18.31     18.138     18.193
1649      18.354      18.34     18.181     18.229
1650      18.375     18.363     18.208     18.255
1651      18.387     18.378     18.223     18.274
1652      18.399     18.393     18.239     18.291
1653      18.416     18.409     18.261     18.311
1654      18.436     18.427     18.288     18.332
1655      18.453      18.44     18.309     18.348
1656      18.456     18.444     18.314     18.352
1657      18.448     18.434     18.303     18.341
1658      18.426     18.405     18.274     18.306
1659      18.373     18.352     18.205     18.242
1660       18.29     18.279     18.097     18.156
1661      18.205     18.202     17.987     18.064
1662       18.14     18.136     17.902     17.985
1663      18.096     18.089     17.844     17.929
1664      18.067     18.063     17.806     17.899
1665      18.064     18.061     17.802     17.897
1666      18.091     18.079     17.837     17.918
1667      18.123     18.102     17.879     17.945
1668      18.137     18.115     17.897      17.96
1669      18.129     18.114     17.886     17.959
1670      18.117     18.114     17.872     17.959
1671       18.13     18.128     17.888     17.977
1672      18.172     18.164     17.943     18.019
1673      18.224     18.206     18.011     18.069
1674      18.262     18.243      18.06     18.113
1675       18.28     18.266     18.084      18.14
1676       18.29      18.28     18.097     18.157
1677      18.301     18.291     18.111      18.17
1678      18.313     18.304     18.127     18.186
1679      18.328     18.324     18.146     18.209
1680      18.355     18.354     18.182     18.245
1681      18.402     18.398     18.243     18.297
1682      18.457     18.447     18.315     18.356
1683      18.506     18.496     18.379     18.415
1684      18.546     18.537     18.431     18.463
1685      18.579     18.562     18.474     18.493
1686      18.584     18.562     18.481     18.493
1687      18.546     18.532      18.43     18.457
1688      18.489      18.49     18.356     18.407
1689      18.449     18.452     18.304     18.362
1690      18.436     18.434     18.287      18.34
1691      18.435     18.421     18.285     18.325
1692      18.421     18.404     18.267     18.305
1693      18.385     18.374     18.221     18.268
1694      18.343     18.345     18.166     18.234
1695      18.327     18.334     18.145     18.221
1696      18.352     18.351     18.178     18.242
1697      18.396      18.38     18.235     18.276
1698      18.423     18.404     18.271     18.305
1699      18.423      18.41     18.271     18.312
1700      18.412     18.407     18.256     18.308
1701      18.408     18.404      18.25     18.305
1702      18.415     18.411      18.26     18.313
1703      18.431     18.431     18.281     18.337
1704      18.465     18.468     18.324     18.381
1705      18.525     18.526     18.404      18.45
1706        18.6     18.601     18.502      18.54
1707      18.688     18.693     18.616     18.648
1708      18.794     18.794     18.755     18.769
1709      18.901     18.889     18.894     18.882
1710      18.976     18.961     18.992     18.968
1711      19.007         19     19.031     19.014
1712      19.015     19.012     19.042     19.029
1713      19.009     19.005     19.035      19.02
1714      18.986     18.985     19.004     18.996
1715      18.955     18.956     18.964     18.961
1716      18.921     18.921     18.919      18.92
1717      18.883     18.881      18.87     18.873
1718      18.839     18.833     18.813     18.816
1719      18.781     18.773     18.737     18.744
1720      18.707     18.703     18.641      18.66
1721      18.629     18.627      18.54     18.571
1722      18.557     18.553     18.445     18.482
1723      18.488     18.483     18.356     18.399
1724      18.424     18.418     18.271     18.321
1725      18.365     18.358     18.194     18.249
1726       18.31     18.302     18.123     18.183
1727      18.259     18.249     18.056      18.12
1728      18.211       18.2     17.993     18.061
1729      18.165     18.162     17.934     18.016
1730       18.14     18.144     17.902     17.996
1731      18.159     18.157     17.927     18.011
1732      18.203     18.196     17.983     18.057
1733      18.257     18.253     18.054     18.125
1734       18.33     18.321     18.149     18.205
1735      18.403     18.381     18.245     18.277
1736      18.444     18.418     18.297     18.321
1737      18.438     18.422      18.29     18.326
1738      18.414     18.406     18.259     18.307
1739      18.391     18.382     18.228     18.279
1740      18.368     18.359     18.199      18.25
1741      18.344     18.333     18.167      18.22
1742      18.316     18.305     18.131     18.186
1743      18.284     18.284     18.089     18.162
1744      18.276     18.286     18.078     18.164
1745      18.319     18.324     18.135     18.209
1746      18.395     18.392     18.234      18.29
1747      18.483     18.482     18.348     18.397
1748      18.584     18.579     18.481     18.513
1749      18.685     18.671     18.613     18.622
1750      18.759     18.743     18.708     18.709
1751      18.798     18.785      18.76     18.759
1752      18.811     18.796     18.777     18.772
1753      18.789     18.775     18.748     18.747
1754      18.737      18.74      18.68     18.705
1755      18.696     18.709     18.626     18.668
1756      18.695     18.703     18.625      18.66
1757      18.718     18.717     18.655     18.677
1758      18.744     18.742     18.689     18.708
1759      18.771     18.777     18.724     18.749
1760      18.814     18.834      18.78     18.816
1761      18.906     18.926       18.9     18.927
1762      19.044     19.038     19.081      19.06
1763      19.161     19.135     19.233     19.175
1764      19.198     19.186     19.281     19.236
1765      19.192     19.206     19.274      19.26
1766      19.204     19.224     19.289     19.281
1767      19.249     19.244     19.347     19.305
1768      19.265     19.228     19.369     19.286
1769      19.172      19.14     19.248     19.181
1770      18.988     19.024     19.007     19.043
1771      18.877     18.954     18.863      18.96
1772      18.959     18.995     18.969     19.009
1773      19.116     19.097     19.175     19.129
1774      19.214     19.195     19.302     19.247
1775      19.249      19.24     19.347       19.3
1776      19.246     19.241     19.344     19.302
1777      19.212     19.214       19.3     19.269
1778      19.165     19.179     19.239     19.227
1779      19.136     19.151       19.2     19.194
1780      19.129     19.139     19.191      19.18
1781      19.132      19.14     19.196     19.181
1782      19.142     19.149     19.209     19.192
1783      19.155     19.161     19.226     19.206
1784      19.167     19.172     19.241     19.219
1785      19.176     19.183     19.252     19.232
1786      19.187     19.195     19.266     19.247
1787      19.202     19.207     19.287     19.261
1788      19.214     19.213     19.302     19.268
1789      19.206     19.205     19.291     19.258
1790      19.178     19.183     19.256     19.232
1791      19.147     19.155     19.215     19.199
1792      19.121     19.127     19.181     19.166
1793      19.097     19.101     19.149     19.135
1794      19.072     19.072     19.117       19.1
1795      19.039      19.03     19.073      19.05
1796      18.976     18.966     18.992     18.974
1797      18.882       18.9     18.869     18.895
1798      18.825     18.862     18.795     18.851
1799      18.862     18.887     18.843     18.879
1800      18.952      18.96      18.96     18.967
1801      19.057     19.062     19.098     19.089
1802      19.166     19.162     19.239     19.207
1803       19.25     19.244      19.35     19.305
1804      19.302     19.291     19.417     19.361
1805      19.309     19.298     19.426     19.369
1806      19.267     19.281     19.372     19.349
1807      19.238     19.271     19.333     19.337
1808      19.272     19.295     19.378     19.365
1809      19.339     19.349     19.465      19.43
1810      19.408     19.405     19.555     19.497
1811      19.448     19.429     19.607     19.525
1812      19.414     19.427     19.563     19.523
1813      19.381     19.453      19.52     19.554
1814        19.5     19.546     19.675     19.664
1815      19.703     19.651      19.94      19.79
1816      19.739     19.674     19.986     19.817
1817      19.575     19.592     19.773     19.719
1818      19.425     19.483     19.578      19.59
1819      19.389     19.429      19.53     19.525
1820      19.419     19.434      19.57     19.531
1821      19.461     19.445     19.625     19.545
1822      19.437     19.404     19.593     19.496
1823      19.306     19.282     19.422      19.35
1824        19.1     19.108     19.153     19.143
1825      18.896     18.956     18.887     18.961
1826      18.833     18.889     18.806     18.882
1827      18.909     18.896     18.904      18.89
1828      18.944     18.905      18.95     18.901
1829       18.88      18.87     18.867      18.86
1830      18.795     18.799     18.755     18.775
1831      18.721     18.721     18.658     18.682
1832      18.653     18.638     18.571     18.583
1833       18.56     18.533      18.45     18.458
1834      18.412     18.406     18.255     18.307
1835      18.268     18.289     18.068     18.168
1836      18.203     18.229     17.984     18.096
1837      18.225     18.238     18.012     18.107
1838      18.309     18.304     18.121     18.186
1839      18.404     18.387     18.245     18.284
1840      18.479     18.466     18.343     18.378
1841      18.539     18.524     18.421     18.448
1842      18.578     18.564     18.473     18.496
1843      18.595     18.591     18.495     18.528
1844      18.615     18.616     18.521     18.557
1845      18.648     18.644     18.564     18.591
1846       18.68     18.679     18.606     18.632
1847      18.716     18.712     18.653     18.671
1848      18.749     18.726     18.696     18.689
1849      18.731     18.703     18.672      18.66
1850      18.649     18.641     18.566     18.587
1851      18.557     18.575     18.445     18.508
1852      18.519     18.534     18.396      18.46
1853      18.536     18.526     18.418      18.45
1854      18.538     18.528      18.42     18.453
1855       18.53     18.538      18.41     18.464
1856      18.558     18.561     18.446     18.492
1857      18.604     18.594     18.507     18.531
1858      18.637     18.618      18.55      18.56
1859      18.635     18.614     18.546     18.554
1860      18.591      18.58      18.49     18.514
1861      18.532     18.541     18.412     18.468
1862      18.507      18.53      18.38     18.454
1863      18.553      18.57      18.44     18.503
1864      18.651     18.632     18.568     18.576
1865      18.716     18.685     18.653     18.639
1866      18.705       18.7     18.638     18.657
1867      18.694     18.698     18.624     18.654
1868      18.699     18.698      18.63     18.654
1869      18.701     18.714     18.633     18.674
1870      18.748     18.753     18.694      18.72
1871      18.808     18.788     18.772     18.762
1872      18.822     18.816     18.791     18.795
1873      18.819     18.821     18.787     18.801
1874      18.828     18.822     18.798     18.802
1875      18.817     18.822     18.784     18.802
1876       18.82     18.822     18.788     18.802
1877      18.835       18.8     18.807     18.777
1878      18.761     18.766     18.711     18.735
1879      18.697     18.768     18.628     18.738
1880      18.818      18.85     18.786     18.835
1881      19.014     18.967     19.042     18.975
1882      19.086     19.046     19.135     19.069
1883       19.05     19.061     19.088     19.087
1884      19.035     19.054     19.068     19.078
1885      19.058     19.056     19.098     19.081
1886      19.065     19.065     19.107     19.092
1887      19.063      19.07     19.105     19.098
1888      19.071     19.069     19.115     19.096
1889      19.063     19.061     19.105     19.087
1890      19.039     19.038     19.074     19.059
1891      19.007     18.999     19.032     19.014
1892      18.946     18.947     18.953     18.951
1893      18.884     18.896     18.872      18.89
1894       18.85     18.866     18.827     18.854
1895      18.849     18.874     18.826     18.864
1896       18.91     18.918     18.905     18.916
1897      18.987     18.958     19.007     18.965
1898      18.986     18.949     19.005     18.954
1899      18.891     18.882     18.881     18.874
1900      18.771      18.81     18.724     18.788
1901      18.746     18.776     18.691     18.748
1902      18.806     18.777      18.77     18.749
1903      18.789     18.751     18.748     18.718
1904      18.685     18.687     18.612     18.642
1905      18.597     18.601     18.497      18.54
1906      18.532      18.53     18.412     18.455
1907      18.473     18.474     18.336     18.388
1908      18.436      18.44     18.287     18.347
1909      18.422     18.422     18.269     18.326
1910      18.429     18.424     18.278     18.328
1911       18.44     18.435     18.293     18.342
1912      18.457     18.447     18.314     18.356
1913      18.472     18.453     18.334     18.363
1914      18.455     18.446     18.312     18.354
1915      18.435     18.437     18.286     18.344
1916      18.438     18.432      18.29     18.338
1917      18.442     18.433     18.296     18.339
1918      18.443     18.433     18.296     18.339
1919      18.438     18.431      18.29     18.337
1920      18.433     18.438     18.283     18.345
1921      18.458      18.46     18.316     18.372
1922      18.509     18.496     18.382     18.414
1923      18.541      18.53     18.424     18.454
1924      18.561     18.551      18.45      18.48
1925      18.573     18.559     18.466     18.489
1926       18.56     18.543     18.449     18.471
1927      18.524     18.511     18.402     18.433
1928      18.468     18.476      18.33      18.39
1929      18.449     18.477     18.304     18.392
1930      18.516      18.52     18.392     18.442
1931      18.609     18.576     18.512     18.509
1932      18.629     18.602     18.539      18.54
1933      18.594     18.593     18.493      18.53
1934       18.57     18.582     18.462     18.516
1935      18.584     18.599      18.48     18.537
1936      18.646     18.673     18.561     18.625
1937      18.778     18.784     18.734     18.757
1938      18.934     18.886     18.937     18.878
1939      18.966     18.919     18.979     18.918
1940      18.877     18.913     18.862     18.911
1941      18.875     18.907     18.859     18.903
1942      18.959     18.942      18.97     18.945
1943      18.978     18.962     18.995     18.969
1944      18.965     18.997     18.978     19.011
1945      19.011     19.042     19.037     19.064
1946      19.135     19.149     19.199     19.192
1947      19.269     19.261     19.374     19.325
1948      19.369      19.38     19.505     19.466
1949      19.466     19.481      19.63     19.588
1950      19.577     19.572     19.775     19.696
1951      19.644     19.627     19.863     19.761
1952       19.63     19.616     19.845     19.748
1953      19.556      19.55     19.748     19.669
1954      19.427     19.392      19.58     19.481
1955      19.201      19.24     19.286       19.3
1956      19.021      19.16     19.051     19.205
1957      19.195     19.265     19.278      19.33
1958      19.511     19.431      19.69     19.528
1959      19.597     19.547     19.802     19.665
1960       19.53     19.571     19.714     19.694
1961      19.531     19.565     19.715     19.687
1962      19.592     19.549     19.795     19.668
1963      19.509     19.454     19.686     19.555
1964      19.264     19.269     19.367     19.335
1965      19.017     19.077     19.045     19.106
1966        18.9     18.994     18.893     19.007
1967      19.006     19.009     19.031     19.025
1968      19.124     19.031     19.184     19.051
1969      18.983     18.973     19.001     18.982
1970      18.819     18.879     18.786      18.87
1971      18.813     18.829     18.779     18.811
1972      18.829     18.785       18.8     18.759
1973       18.76     18.734      18.71     18.697
1974      18.607     18.691      18.51     18.646
1975      18.674     18.751     18.598     18.718
1976      18.952      18.93     18.961     18.931
1977      19.136     19.089       19.2      19.12
1978      19.225     19.197     19.316     19.249
1979      19.209     19.181     19.295      19.23
1980      19.125     19.122     19.186     19.159
1981      19.018     19.066     19.046     19.093
1982      19.006     19.069      19.03     19.096
1983      19.163     19.161     19.236     19.206
1984      19.275     19.224     19.382     19.281
1985      19.263     19.235     19.366     19.294
1986      19.155     19.167     19.225     19.213
1987      19.063     19.124     19.105     19.162
1988      19.113     19.152     19.171     19.196
1989      19.239     19.219     19.335     19.276
1990      19.306     19.262     19.422     19.326
1991      19.238     19.246     19.333     19.307
1992      19.171      19.22     19.246     19.276
1993      19.215     19.232     19.304     19.291
1994      19.276     19.256     19.383     19.319
1995      19.274     19.207      19.38     19.261
1996      19.098     19.074     19.151     19.102
1997      18.832     18.919     18.804     18.918

